----- Header information -------------------------------------------------------
Current name: ALD_76_XRR.txt
Original name: ALD_76_XRR2.udf + ALD_76_XRR3.udf
Comment: ALD_76_XRR2.udf + ALD_76_XRR3.udf (skaliert auf 0.000576886782303)
Original date: 07-Feb-2013, 10:02:28
Wavelength: 1.54183666667
Omega: ???
2Theta: ???
Scan type: Continuous
Scan axis: ???
First angle: 0.01
Scan range: 4.08
Step width: 0.01
Time per step: 2.0
Number of points: 409
--------------------------------------------------------------------------------

        Angle	    Intensity
          deg	          cps
       0.0100	   13330.5000
       0.0200	   14825.0000
       0.0300	   13417.5000
       0.0400	   10621.0000
       0.0500	    8249.5000
       0.0600	    6883.0000
       0.0700	    6815.5000
       0.0800	    7366.5000
       0.0900	    8261.5000
       0.1000	    9072.5000
       0.1100	    9885.5000
       0.1200	   10570.0000
       0.1300	   11413.5000
       0.1400	   12244.0000
       0.1500	   12920.0000
       0.1600	   13854.0000
       0.1700	   14605.0000
       0.1800	   15053.0000
       0.1900	   15856.5000
       0.2000	   16255.5000
       0.2100	   17010.0000
       0.2200	   17804.5000
       0.2300	   18178.5000
       0.2400	   18805.0000
       0.2500	   19274.5000
       0.2600	   19782.0000
       0.2700	   20238.0000
       0.2800	   20527.0000
       0.2900	   21128.0000
       0.3000	   21577.0000
       0.3100	   21786.0000
       0.3200	   21909.5000
       0.3300	   22243.0000
       0.3400	   22569.5000
       0.3500	   22637.5000
       0.3600	   22690.5000
       0.3700	   22717.5000
       0.3800	   22714.5000
       0.3900	   22702.0000
       0.4000	   22510.5000
       0.4100	   22622.5000
       0.4200	   22172.0000
       0.4300	   21909.0000
       0.4400	   20654.5000
       0.4500	   19699.0000
       0.4600	   17948.5000
       0.4700	   16435.0000
       0.4800	   14797.0000
       0.4900	   13230.0000
       0.5000	   12076.0000
       0.5100	   10574.5000
       0.5200	    9675.5000
       0.5300	    8530.5000
       0.5400	    7505.5000
       0.5500	    6651.0000
       0.5600	    5828.5000
       0.5700	    5140.0000
       0.5800	    4425.0000
       0.5900	    3755.0000
       0.6000	    3166.5000
       0.6100	    2725.5000
       0.6200	    2330.0000
       0.6300	    1895.0000
       0.6400	    1620.5000
       0.6500	    1329.5000
       0.6600	    1113.5000
       0.6700	     910.0000
       0.6800	     764.0000
       0.6900	     605.0000
       0.7000	     507.0000
       0.7100	     407.0000
       0.7200	     343.5000
       0.7300	     301.0000
       0.7400	     253.0000
       0.7500	     238.5000
       0.7600	     210.0000
       0.7700	     208.5000
       0.7800	     194.5000
       0.7900	     170.5000
       0.8000	     176.5000
       0.8100	     173.0000
       0.8200	     188.0000
       0.8300	     181.0000
       0.8400	     175.0000
       0.8500	     178.0000
       0.8600	     192.0000
       0.8700	     182.5000
       0.8800	     189.5000
       0.8900	     200.5000
       0.9000	     189.5000
       0.9100	     202.0000
       0.9200	     184.0000
       0.9300	     183.5000
       0.9400	     185.0000
       0.9500	     162.0000
       0.9600	     161.5000
       0.9700	     181.0000
       0.9800	     151.5000
       0.9900	     157.5000
       1.0000	     143.5000
       1.0100	     146.5000
       1.0200	     133.5000
       1.0300	     125.0000
       1.0400	     119.5000
       1.0500	     108.0000
       1.0600	      94.5000
       1.0700	      82.5000
       1.0800	      92.0000
       1.0900	      73.0000
       1.1000	      63.5000
       1.1100	      57.2328
       1.1200	      57.0546
       1.1300	      51.5759
       1.1400	      46.2018
       1.1500	      41.0790
       1.1600	      34.7531
       1.1700	      31.0819
       1.1800	      27.6897
       1.1900	      25.5291
       1.2000	      24.7921
       1.2100	      21.0168
       1.2200	      18.3755
       1.2300	      16.4758
       1.2400	      17.2406
       1.2500	      15.9209
       1.2600	      16.3960
       1.2700	      14.7692
       1.2800	      16.2213
       1.2900	      17.5899
       1.3000	      15.2330
       1.3100	      15.4210
       1.3200	      16.9313
       1.3300	      17.1185
       1.3400	      17.8261
       1.3500	      18.2570
       1.3600	      18.9660
       1.3700	      19.3791
       1.3800	      20.0139
       1.3900	      20.4881
       1.4000	      20.7440
       1.4100	      21.0137
       1.4200	      21.2023
       1.4300	      21.4579
       1.4400	      21.3428
       1.4500	      21.4429
       1.4600	      21.1461
       1.4700	      21.0180
       1.4800	      20.5314
       1.4900	      20.2730
       1.5000	      19.6378
       1.5100	      19.1134
       1.5200	      18.4312
       1.5300	      17.7932
       1.5400	      16.8820
       1.5500	      16.0487
       1.5600	      15.2543
       1.5700	      14.2716
       1.5800	      13.6284
       1.5900	      12.6459
       1.6000	      11.7313
       1.6100	      11.0240
       1.6200	      10.0638
       1.6300	       9.1976
       1.6400	       8.5267
       1.6500	       7.8136
       1.6600	       6.9668
       1.6700	       6.3639
       1.6800	       5.7943
       1.6900	       5.2808
       1.7000	       4.7778
       1.7100	       4.2964
       1.7200	       3.9073
       1.7300	       3.5920
       1.7400	       3.2828
       1.7500	       3.0889
       1.7600	       2.9066
       1.7700	       2.8103
       1.7800	       2.7558
       1.7900	       2.7249
       1.8000	       2.7391
       1.8100	       2.7344
       1.8200	       2.8299
       1.8300	       2.9023
       1.8400	       2.9860
       1.8500	       3.1778
       1.8600	       3.3382
       1.8700	       3.4108
       1.8800	       3.5579
       1.8900	       3.7241
       1.9000	       3.8749
       1.9100	       4.0385
       1.9200	       4.1879
       1.9300	       4.2517
       1.9400	       4.3549
       1.9500	       4.4847
       1.9600	       4.5883
       1.9700	       4.5981
       1.9800	       4.6359
       1.9900	       4.6650
       2.0000	       4.5190
       2.0100	       4.5842
       2.0200	       4.5317
       2.0300	       4.4091
       2.0400	       4.3088
       2.0500	       4.2361
       2.0600	       4.0809
       2.0700	       3.9292
       2.0800	       3.7922
       2.0900	       3.6156
       2.1000	       3.4005
       2.1100	       3.1856
       2.1200	       3.0448
       2.1300	       2.8498
       2.1400	       2.6338
       2.1500	       2.4163
       2.1600	       2.1841
       2.1700	       2.0468
       2.1800	       1.8570
       2.1900	       1.7454
       2.2000	       1.5487
       2.2100	       1.3695
       2.2200	       1.2663
       2.2300	       1.1578
       2.2400	       1.0398
       2.2500	       0.9369
       2.2600	       0.8206
       2.2700	       0.7903
       2.2800	       0.7217
       2.2900	       0.6796
       2.3000	       0.6605
       2.3100	       0.6450
       2.3200	       0.6103
       2.3300	       0.6317
       2.3400	       0.6187
       2.3500	       0.6282
       2.3600	       0.6726
       2.3700	       0.7318
       2.3800	       0.7246
       2.3900	       0.7918
       2.4000	       0.8376
       2.4100	       0.8725
       2.4200	       0.8956
       2.4300	       0.9876
       2.4400	       1.0424
       2.4500	       1.0407
       2.4600	       1.1180
       2.4700	       1.1572
       2.4800	       1.1333
       2.4900	       1.2100
       2.5000	       1.2469
       2.5100	       1.2291
       2.5200	       1.2634
       2.5300	       1.2565
       2.5400	       1.2547
       2.5500	       1.2559
       2.5600	       1.2582
       2.5700	       1.2276
       2.5800	       1.2190
       2.5900	       1.1431
       2.6000	       1.1180
       2.6100	       1.1047
       2.6200	       1.0306
       2.6300	       1.0199
       2.6400	       0.9219
       2.6500	       0.8896
       2.6600	       0.8290
       2.6700	       0.7955
       2.6800	       0.7355
       2.6900	       0.6695
       2.7000	       0.6450
       2.7100	       0.5812
       2.7200	       0.5316
       2.7300	       0.4938
       2.7400	       0.4425
       2.7500	       0.4249
       2.7600	       0.3652
       2.7700	       0.3389
       2.7800	       0.2962
       2.7900	       0.2605
       2.8000	       0.2345
       2.8100	       0.2166
       2.8200	       0.2074
       2.8300	       0.1970
       2.8400	       0.1852
       2.8500	       0.1774
       2.8600	       0.1823
       2.8700	       0.1687
       2.8800	       0.1806
       2.8900	       0.1907
       2.9000	       0.2039
       2.9100	       0.2163
       2.9200	       0.2380
       2.9300	       0.2328
       2.9400	       0.2628
       2.9500	       0.2509
       2.9600	       0.2804
       2.9700	       0.2922
       2.9800	       0.3216
       2.9900	       0.3156
       3.0000	       0.3245
       3.0100	       0.3608
       3.0200	       0.3562
       3.0300	       0.3741
       3.0400	       0.3753
       3.0500	       0.3735
       3.0600	       0.3897
       3.0700	       0.3727
       3.0800	       0.3735
       3.0900	       0.3626
       3.1000	       0.3542
       3.1100	       0.3819
       3.1200	       0.3836
       3.1300	       0.3640
       3.1400	       0.3453
       3.1500	       0.3516
       3.1600	       0.3297
       3.1700	       0.2983
       3.1800	       0.2798
       3.1900	       0.2573
       3.2000	       0.2472
       3.2100	       0.2374
       3.2200	       0.2256
       3.2300	       0.1953
       3.2400	       0.1843
       3.2500	       0.1748
       3.2600	       0.1586
       3.2700	       0.1569
       3.2800	       0.1232
       3.2900	       0.1142
       3.3000	       0.1056
       3.3100	       0.0978
       3.3200	       0.0909
       3.3300	       0.0793
       3.3400	       0.0695
       3.3500	       0.0704
       3.3600	       0.0632
       3.3700	       0.0493
       3.3800	       0.0508
       3.3900	       0.0467
       3.4000	       0.0562
       3.4100	       0.0554
       3.4200	       0.0562
       3.4300	       0.0482
       3.4400	       0.0542
       3.4500	       0.0614
       3.4600	       0.0695
       3.4700	       0.0614
       3.4800	       0.0681
       3.4900	       0.0692
       3.5000	       0.0851
       3.5100	       0.0854
       3.5200	       0.0923
       3.5300	       0.0989
       3.5400	       0.0984
       3.5500	       0.0958
       3.5600	       0.1128
       3.5700	       0.1134
       3.5800	       0.1044
       3.5900	       0.1240
       3.6000	       0.1136
       3.6100	       0.1171
       3.6200	       0.1214
       3.6300	       0.1217
       3.6400	       0.1111
       3.6500	       0.1209
       3.6600	       0.1157
       3.6700	       0.1024
       3.6800	       0.1001
       3.6900	       0.1079
       3.7000	       0.0926
       3.7100	       0.0998
       3.7200	       0.0946
       3.7300	       0.0825
       3.7400	       0.0834
       3.7500	       0.0652
       3.7600	       0.0623
       3.7700	       0.0724
       3.7800	       0.0626
       3.7900	       0.0551
       3.8000	       0.0554
       3.8100	       0.0430
       3.8200	       0.0447
       3.8300	       0.0430
       3.8400	       0.0312
       3.8500	       0.0323
       3.8600	       0.0346
       3.8700	       0.0251
       3.8800	       0.0280
       3.8900	       0.0254
       3.9000	       0.0199
       3.9100	       0.0150
       3.9200	       0.0156
       3.9300	       0.0187
       3.9400	       0.0179
       3.9500	       0.0211
       3.9600	       0.0173
       3.9700	       0.0176
       3.9800	       0.0185
       3.9900	       0.0216
       4.0000	       0.0211
       4.0100	       0.0228
       4.0200	       0.0222
       4.0300	       0.0242
       4.0400	       0.0280
       4.0500	       0.0242
       4.0600	       0.0291
       4.0700	       0.0254
       4.0800	       0.0294
       4.0900	       0.0306
