HR-XRDScan
FileName, STO-Schicht_RR3_A3_1.x00
FileDateTime, 6-Jul-2011,09:35
Sample, Florian
Reflection,   0  0  0 
Wavelength, 1.541837
GenkVmA, 10, 10
Omega, 0.59500
TwoTheta, 0.7500
X, 0.00
Y, 0.00
Phi, 0.0
Psi, 0.000
ScanType, CONTINUOUS
ScanAxis, 2Theta/Omega
FirstAngle, 0.01000
ScanRange, 1.48000
StepWidth, 0.01000
TimePerStep, 2.00
NrOfData, 149
ScanData
50030.0000
94433.5000
131541.0000
138559.0000
113685.0000
75988.5000
41176.0000
20261.5000
10956.5000
8999.5000
9976.0000
11301.5000
12430.5000
13856.5000
15263.0000
16411.5000
18018.5000
19419.5000
20975.5000
22622.0000
24291.0000
25760.0000
27486.0000
28928.0000
30643.0000
32286.5000
34113.0000
35788.5000
37789.5000
39177.5000
41121.5000
43126.0000
44421.0000
46010.5000
47936.5000
49229.5000
51030.0000
52508.0000
53511.0000
55061.5000
56544.0000
57493.0000
58060.0000
59195.5000
59253.0000
59611.5000
59756.5000
59791.5000
59957.5000
59109.5000
57383.5000
56341.5000
54294.5000
51443.5000
47336.5000
41948.0000
34985.5000
26895.5000
18449.0000
10758.5000
6076.0000
3810.0000
2821.5000
2546.5000
2684.5000
2802.5000
2677.0000
2229.5000
1677.5000
1535.0000
1543.5000
1743.5000
1663.0000
1371.0000
1045.0000
704.5000
562.5000
535.0000
500.5000
416.0000
359.0000
301.0000
233.0000
206.5000
191.0000
182.0000
166.5000
156.5000
120.0000
113.0000
92.5000
75.0000
84.5000
64.5000
88.0000
100.0000
102.0000
92.0000
117.5000
91.5000
76.0000
76.0000
61.5000
75.5000
74.5000
85.5000
84.5000
90.5000
65.5000
83.0000
77.5000
68.0000
68.5000
67.0000
71.5000
77.0000
78.0000
63.5000
51.5000
51.0000
55.0000
43.5000
53.5000
58.0000
46.0000
37.0000
45.0000
28.0000
23.0000
24.5000
27.0000
25.5000
19.5000
24.5000
21.5000
14.0000
11.0000
12.0000
8.5000
7.0000
8.0000
3.0000
7.5000
9.0000
8.0000
9.5000
6.5000
5.0000
4.0000
