HR-XRDScan
FileName, STO-Schicht_RR3_A3_2.x00
FileDateTime, 6-Jul-2011,09:36
Sample, Florian
Reflection,   0  0  0 
Wavelength, 1.541837
GenkVmA, 10, 10
Omega, 1.57000
TwoTheta, 2.7000
X, 0.00
Y, 0.00
Phi, 0.0
Psi, 0.000
ScanType, CONTINUOUS
ScanAxis, 2Theta/Omega
FirstAngle, 0.71000
ScanRange, 3.98000
StepWidth, 0.01000
TimePerStep, 2.00
NrOfData, 399
ScanData
143643.5000
148521.0000
138582.0000
107517.5000
79405.0000
57087.0000
46058.5000
42176.0000
40100.0000
36360.0000
30337.5000
24231.0000
19603.0000
16605.0000
15134.0000
14448.0000
13317.5000
12072.5000
10618.5000
9140.5000
7859.5000
7055.5000
6903.5000
7067.5000
7522.0000
8088.0000
8556.5000
8714.0000
8667.0000
7979.5000
7180.0000
6433.0000
6267.5000
6293.0000
6772.0000
7302.0000
7692.0000
7746.5000
7625.5000
7227.0000
6776.0000
6608.0000
6569.0000
6900.0000
6995.5000
6850.5000
6581.5000
6053.0000
5482.5000
5101.0000
4742.0000
4474.0000
4464.5000
4382.0000
4227.5000
3999.5000
3530.0000
3008.5000
2661.5000
2365.5000
2202.0000
2058.0000
2027.0000
1896.5000
1733.0000
1513.0000
1331.5000
1141.5000
1012.0000
944.0000
893.0000
871.0000
829.0000
802.5000
680.5000
626.5000
565.5000
530.5000
481.0000
480.0000
447.0000
423.0000
424.0000
415.0000
390.0000
347.5000
346.5000
319.0000
320.5000
296.5000
271.0000
261.5000
260.0000
249.5000
236.5000
209.0000
188.5000
175.5000
162.0000
172.0000
160.5000
138.0000
139.0000
139.5000
132.5000
123.0000
122.5000
111.0000
101.0000
106.5000
105.0000
106.5000
98.5000
93.0000
94.0000
97.5000
96.0000
93.5000
84.0000
84.5000
79.0000
81.0000
73.5000
83.0000
83.0000
84.0000
78.0000
75.0000
70.5000
73.0000
62.5000
60.0000
75.5000
57.0000
70.5000
65.0000
67.0000
56.5000
68.0000
66.0000
65.5000
61.5000
71.5000
60.0000
55.0000
57.5000
62.0000
55.5000
60.0000
64.5000
51.5000
60.0000
51.0000
53.5000
55.0000
43.5000
63.5000
51.0000
53.0000
52.5000
51.5000
53.0000
49.5000
56.0000
46.5000
55.0000
42.5000
39.0000
44.5000
47.0000
50.0000
42.5000
41.0000
42.5000
43.5000
36.0000
37.5000
45.0000
34.0000
33.5000
34.5000
35.0000
28.0000
36.0000
32.0000
35.0000
30.0000
25.0000
26.0000
27.5000
23.0000
25.5000
18.5000
23.0000
22.0000
26.5000
18.5000
23.5000
15.5000
18.0000
23.0000
16.0000
10.0000
17.5000
19.0000
13.5000
7.5000
12.0000
13.5000
14.5000
14.0000
9.0000
8.5000
7.5000
9.5000
17.0000
8.0000
12.0000
14.5000
6.5000
8.5000
7.0000
11.0000
9.0000
4.0000
10.0000
11.5000
13.0000
10.5000
11.0000
11.0000
8.5000
10.0000
8.5000
5.5000
9.0000
4.5000
3.5000
8.5000
6.5000
6.5000
4.5000
6.0000
7.0000
7.0000
6.5000
8.0000
4.0000
6.5000
7.5000
7.5000
8.5000
5.0000
4.0000
8.0000
8.0000
7.5000
6.0000
3.5000
6.0000
4.5000
4.0000
4.5000
4.5000
5.5000
3.0000
7.5000
5.0000
5.0000
4.5000
3.5000
4.0000
6.5000
6.0000
6.5000
4.0000
6.0000
2.5000
4.0000
4.0000
5.0000
6.0000
6.0000
6.0000
2.5000
6.5000
6.0000
5.0000
3.0000
1.0000
4.0000
6.5000
3.5000
5.5000
2.5000
3.5000
4.0000
4.5000
4.0000
5.5000
3.0000
5.5000
2.5000
3.5000
2.0000
3.0000
3.0000
5.0000
2.5000
2.5000
2.5000
4.5000
4.0000
3.0000
2.5000
3.5000
5.5000
5.0000
7.0000
2.0000
6.0000
3.5000
3.5000
1.0000
2.5000
2.5000
2.5000
2.0000
1.5000
4.5000
2.5000
1.5000
2.0000
4.5000
1.5000
3.5000
2.0000
2.0000
4.0000
2.5000
1.5000
0.5000
4.0000
2.5000
2.0000
1.5000
2.5000
1.5000
3.0000
2.0000
3.5000
1.0000
3.0000
2.5000
5.0000
1.5000
0.5000
2.0000
2.0000
1.0000
3.0000
3.5000
1.5000
0.5000
1.0000
2.0000
2.5000
1.5000
5.0000
1.5000
2.5000
2.5000
0.5000
1.0000
0.5000
0.0000
0.0000
2.5000
2.5000
1.5000
2.5000
1.5000
0.5000
0.0000
1.0000
3.0000
3.0000
0.5000
0.5000
1.0000
2.0000
0.5000
0.5000
3.5000
4.5000
2.0000
4.0000
3.0000
0.5000
